#R dependence of screened Coulomb at omega=calc_ifreq
#1:R [AA], 2:Re[W(R)] [eV], 3:Im[W(R)] [eV]
    20.57828     0.04652     0.00182
    20.57828     0.04607     0.00183
    20.57828     0.04607     0.00183
    20.57828     0.04542     0.00186
    20.57828     0.04543     0.00186
    25.71231     0.04474     0.00193
    25.71231     0.04436     0.00193
    25.71231     0.04436     0.00193
    25.71231     0.04386     0.00196
    25.71231     0.04383     0.00195
    31.51006     0.07331     0.00142
    31.51006     0.07322     0.00142
    31.51006     0.07321     0.00141
    31.51006     0.07343     0.00142
    31.51006     0.07346     0.00143
    37.66628     0.11894     0.00076
    37.66628     0.11968     0.00075
    37.66628     0.11968     0.00075
    37.66628     0.12233     0.00078
    37.66628     0.12323     0.00086
    44.03086     0.14870     0.00032
    44.03086     0.15018     0.00030
    44.03086     0.15019     0.00030
    44.03086     0.15415     0.00026
    44.03086     0.15392     0.00026
    50.52512     0.12614     0.00026
    50.52512     0.12668     0.00024
    50.52512     0.12668     0.00024
    50.52512     0.12810     0.00019
    50.52512     0.12771     0.00017
    57.10484     0.07929     0.00105
    57.10484     0.07899     0.00105
    57.10484     0.07899     0.00105
    57.10484     0.07864     0.00106
    57.10484     0.07851     0.00105
    15.29900     0.08459     0.00080
    15.29900     0.08387     0.00082
    15.29900     0.08437     0.00080
    15.29900     0.08349     0.00085
    15.29900     0.08358     0.00085
    19.82164     0.04750     0.00177
    19.82164     0.04698     0.00179
    19.82164     0.04702     0.00178
    19.82164     0.04626     0.00182
    19.82164     0.04632     0.00183
    25.41336     0.04456     0.00195
    25.41336     0.04420     0.00196
    25.41336     0.04417     0.00196
    25.41336     0.04375     0.00199
    25.41336     0.04382     0.00199
    31.51006     0.07331     0.00142
    31.51006     0.07322     0.00142
    31.51006     0.07321     0.00141
    31.51006     0.07343     0.00142
    31.51006     0.07346     0.00143
    37.86862     0.12118     0.00050
    37.86862     0.12157     0.00049
    37.86862     0.12189     0.00047
    37.86862     0.12325     0.00042
    37.86862     0.12280     0.00041
    44.37662     0.16396    -0.00024
    44.37662     0.16491    -0.00023
    44.37662     0.16673    -0.00028
    44.37662     0.17095    -0.00032
    44.37662     0.17136    -0.00029
    50.97686     0.13951    -0.00031
    50.97686     0.13918    -0.00031
    50.97686     0.14071    -0.00035
    50.97686     0.14125    -0.00036
    50.97686     0.14115    -0.00036
    11.77949     0.15334    -0.00078
    11.77949     0.15135    -0.00076
    11.77949     0.15554    -0.00083
    11.77949     0.15418    -0.00083
    11.77949     0.15395    -0.00080
    14.79105     0.08706     0.00068
    14.79105     0.08608     0.00071
    14.79105     0.08689     0.00068
    14.79105     0.08561     0.00074
    14.79105     0.08573     0.00075
    19.82164     0.04750     0.00177
    19.82164     0.04698     0.00179
    19.82164     0.04702     0.00178
    19.82164     0.04626     0.00182
    19.82164     0.04632     0.00183
    25.71231     0.04474     0.00193
    25.71231     0.04436     0.00193
    25.71231     0.04436     0.00193
    25.71231     0.04386     0.00196
    25.71231     0.04383     0.00195
    31.99144     0.07561     0.00124
    31.99144     0.07531     0.00125
    31.99144     0.07553     0.00123
    31.99144     0.07532     0.00123
    31.99144     0.07515     0.00122
    38.46927     0.13118     0.00006
    38.46927     0.13068     0.00006
    38.46927     0.13262     0.00001
    38.46927     0.13300    -0.00004
    38.46927     0.13246    -0.00006
    45.06019     0.18816    -0.00094
    45.06019     0.18711    -0.00094
    45.06019     0.19373    -0.00102
    45.06019     0.19692    -0.00113
    45.06019     0.19626    -0.00112
    11.72847     0.21122    -0.00106
    11.72847     0.20509    -0.00118
    11.72847     0.22244    -0.00103
    11.72847     0.22355    -0.00133
    11.72847     0.22018    -0.00136
    11.77949     0.15334    -0.00078
    11.77949     0.15135    -0.00076
    11.77949     0.15554    -0.00083
    11.77949     0.15418    -0.00083
    11.77949     0.15395    -0.00080
    15.29899     0.08459     0.00080
    15.29899     0.08387     0.00082
    15.29899     0.08437     0.00080
    15.29899     0.08349     0.00085
    15.29899     0.08358     0.00085
    20.57828     0.04652     0.00182
    20.57828     0.04607     0.00183
    20.57828     0.04607     0.00183
    20.57828     0.04542     0.00186
    20.57828     0.04543     0.00186
    26.58901     0.04534     0.00188
    26.58901     0.04486     0.00189
    26.58901     0.04493     0.00188
    26.58901     0.04423     0.00190
    26.58901     0.04411     0.00190
    32.93309     0.07941     0.00106
    32.93309     0.07872     0.00107
    32.93309     0.07954     0.00105
    32.93309     0.07884     0.00106
    32.93309     0.07871     0.00106
    39.45003     0.14181    -0.00025
    39.45003     0.14005    -0.00025
    39.45003     0.14424    -0.00029
    39.45003     0.14339    -0.00034
    39.45003     0.14292    -0.00034
    15.18094     0.14181    -0.00025
    15.18094     0.14005    -0.00025
    15.18094     0.14424    -0.00029
    15.18094     0.14339    -0.00034
    15.18094     0.14292    -0.00034
    12.36289     0.18816    -0.00094
    12.36289     0.18711    -0.00094
    12.36289     0.19373    -0.00102
    12.36289     0.19692    -0.00113
    12.36289     0.19626    -0.00112
    13.01248     0.13951    -0.00031
    13.01248     0.13918    -0.00031
    13.01248     0.14071    -0.00035
    13.01248     0.14125    -0.00036
    13.01248     0.14115    -0.00036
    16.73056     0.07929     0.00105
    16.73056     0.07899     0.00105
    16.73056     0.07899     0.00105
    16.73056     0.07864     0.00106
    16.73056     0.07851     0.00105
    22.01368     0.04534     0.00188
    22.01368     0.04493     0.00188
    22.01368     0.04486     0.00189
    22.01368     0.04423     0.00190
    22.01368     0.04411     0.00190
    27.98921     0.04616     0.00185
    27.98921     0.04561     0.00186
    27.98921     0.04579     0.00186
    27.98921     0.04508     0.00189
    27.98921     0.04509     0.00189
    34.29713     0.08135     0.00099
    34.29713     0.08044     0.00100
    34.29713     0.08160     0.00098
    34.29713     0.08065     0.00100
    34.29713     0.08060     0.00101
    20.43204     0.07941     0.00106
    20.43204     0.07872     0.00107
    20.43204     0.07954     0.00105
    20.43204     0.07884     0.00106
    20.43204     0.07871     0.00106
    16.15640     0.13118     0.00006
    16.15640     0.13068     0.00006
    16.15640     0.13262     0.00001
    16.15640     0.13300    -0.00004
    16.15640     0.13246    -0.00006
    14.09586     0.16396    -0.00024
    14.09586     0.16491    -0.00023
    14.09586     0.16673    -0.00028
    14.09586     0.17095    -0.00032
    14.09586     0.17136    -0.00029
    15.18094     0.12614     0.00026
    15.18094     0.12668     0.00024
    15.18094     0.12668     0.00024
    15.18094     0.12810     0.00019
    15.18094     0.12771     0.00017
    18.87676     0.07561     0.00124
    18.87676     0.07553     0.00123
    18.87676     0.07531     0.00125
    18.87676     0.07532     0.00123
    18.87676     0.07515     0.00122
    24.00639     0.04501     0.00191
    24.00639     0.04465     0.00191
    24.00639     0.04458     0.00192
    24.00639     0.04405     0.00193
    24.00639     0.04402     0.00193
    29.83931     0.04616     0.00185
    29.83931     0.04561     0.00186
    29.83931     0.04579     0.00186
    29.83931     0.04508     0.00189
    29.83931     0.04509     0.00189
    26.43065     0.04534     0.00188
    26.43065     0.04486     0.00189
    26.43065     0.04493     0.00188
    26.43065     0.04423     0.00190
    26.43065     0.04411     0.00190
    21.52489     0.07561     0.00124
    21.52489     0.07531     0.00125
    21.52489     0.07553     0.00123
    21.52489     0.07532     0.00123
    21.52489     0.07515     0.00122
    17.94897     0.12118     0.00050
    17.94897     0.12157     0.00049
    17.94897     0.12189     0.00047
    17.94897     0.12325     0.00042
    17.94897     0.12280     0.00041
    16.58655     0.14870     0.00032
    16.58655     0.15018     0.00030
    16.58655     0.15019     0.00030
    16.58655     0.15415     0.00026
    16.58655     0.15392     0.00026
    17.94897     0.12118     0.00050
    17.94897     0.12189     0.00047
    17.94897     0.12157     0.00049
    17.94897     0.12325     0.00042
    17.94897     0.12280     0.00041
    21.52489     0.07561     0.00124
    21.52489     0.07553     0.00123
    21.52489     0.07531     0.00125
    21.52489     0.07532     0.00123
    21.52489     0.07515     0.00122
    26.43065     0.04534     0.00188
    26.43065     0.04493     0.00188
    26.43065     0.04486     0.00189
    26.43065     0.04423     0.00190
    26.43065     0.04411     0.00190
    15.29900     0.08459     0.00080
    15.29900     0.08437     0.00080
    15.29900     0.08387     0.00082
    15.29900     0.08349     0.00085
    15.29900     0.08358     0.00085
    19.82164     0.04750     0.00177
    19.82164     0.04702     0.00178
    19.82164     0.04698     0.00179
    19.82164     0.04626     0.00182
    19.82164     0.04632     0.00183
    25.41336     0.04456     0.00195
    25.41336     0.04417     0.00196
    25.41336     0.04419     0.00196
    25.41336     0.04375     0.00199
    25.41336     0.04382     0.00199
    31.51006     0.07331     0.00142
    31.51006     0.07322     0.00142
    31.51006     0.07321     0.00141
    31.51006     0.07343     0.00142
    31.51006     0.07346     0.00143
    37.86862     0.12118     0.00050
    37.86862     0.12189     0.00047
    37.86862     0.12157     0.00049
    37.86862     0.12325     0.00042
    37.86862     0.12280     0.00041
    44.37662     0.16396    -0.00024
    44.37662     0.16673    -0.00028
    44.37662     0.16491    -0.00023
    44.37662     0.17095    -0.00032
    44.37662     0.17136    -0.00029
    50.97686     0.13951    -0.00031
    50.97686     0.14071    -0.00035
    50.97686     0.13918    -0.00031
    50.97686     0.14125    -0.00036
    50.97686     0.14115    -0.00036
    10.40135     0.16106    -0.00136
    10.40135     0.16105    -0.00136
    10.40135     0.16105    -0.00136
    10.40135     0.16073    -0.00134
    10.40135     0.16071    -0.00133
    13.71885     0.09167     0.00039
    13.71885     0.09079     0.00042
    13.71885     0.09079     0.00042
    13.71885     0.08920     0.00049
    13.71885     0.08932     0.00048
    19.03495     0.04837     0.00169
    19.03495     0.04779     0.00170
    19.03495     0.04779     0.00170
    19.03495     0.04679     0.00174
    19.03495     0.04673     0.00173
    25.11085     0.04391     0.00196
    25.11085     0.04351     0.00197
    25.11085     0.04351     0.00197
    25.11085     0.04283     0.00198
    25.11085     0.04255     0.00196
    31.51006     0.07331     0.00142
    31.51006     0.07322     0.00142
    31.51006     0.07321     0.00141
    31.51006     0.07343     0.00142
    31.51006     0.07346     0.00143
    38.06989     0.12614     0.00026
    38.06989     0.12668     0.00024
    38.06989     0.12668     0.00024
    38.06989     0.12810     0.00019
    38.06989     0.12771     0.00017
    44.71971     0.18564    -0.00133
    44.71971     0.18779    -0.00139
    44.71971     0.18779    -0.00139
    44.71971     0.19220    -0.00162
    44.71971     0.19043    -0.00178
     8.74188     0.23435    -0.00293
     8.74188     0.23390    -0.00295
     8.74188     0.24200    -0.00308
     8.74188     0.24665    -0.00330
     8.74188     0.24624    -0.00336
     8.81022     0.18701    -0.00249
     8.81022     0.18366    -0.00241
     8.81022     0.18780    -0.00251
     8.81022     0.18292    -0.00235
     8.81022     0.18310    -0.00235
    13.15001     0.09520     0.00017
    13.15001     0.09389     0.00021
    13.15001     0.09420     0.00020
    13.15001     0.09186     0.00029
    13.15001     0.09195     0.00027
    19.03495     0.04837     0.00169
    19.03495     0.04779     0.00170
    19.03495     0.04779     0.00170
    19.03495     0.04679     0.00174
    19.03495     0.04673     0.00173
    25.41336     0.04456     0.00195
    25.41336     0.04417     0.00196
    25.41336     0.04419     0.00196
    25.41336     0.04375     0.00199
    25.41336     0.04382     0.00199
    31.99144     0.07561     0.00124
    31.99144     0.07531     0.00125
    31.99144     0.07553     0.00123
    31.99144     0.07532     0.00123
    31.99144     0.07515     0.00122
    38.66741     0.13951    -0.00031
    38.66741     0.13918    -0.00031
    38.66741     0.14071    -0.00035
    38.66741     0.14125    -0.00036
    38.66741     0.14115    -0.00036
    11.77949     0.15334    -0.00078
    11.77949     0.15135    -0.00076
    11.77949     0.15554    -0.00083
    11.77949     0.15418    -0.00083
    11.77949     0.15395    -0.00080
     7.81898     0.29119    -0.00384
     7.81898     0.27766    -0.00392
     7.81898     0.31400    -0.00400
     7.81898     0.31330    -0.00445
     7.81898     0.30717    -0.00431
     8.81022     0.18701    -0.00249
     8.81022     0.18366    -0.00241
     8.81022     0.18780    -0.00251
     8.81022     0.18292    -0.00235
     8.81022     0.18310    -0.00235
    13.71885     0.09167     0.00039
    13.71885     0.09079     0.00042
    13.71885     0.09079     0.00042
    13.71885     0.08920     0.00049
    13.71885     0.08932     0.00048
    19.82164     0.04750     0.00177
    19.82164     0.04702     0.00178
    19.82164     0.04698     0.00179
    19.82164     0.04626     0.00182
    19.82164     0.04632     0.00183
    26.30002     0.04501     0.00191
    26.30002     0.04458     0.00192
    26.30002     0.04465     0.00191
    26.30002     0.04405     0.00193
    26.30002     0.04402     0.00193
    32.93309     0.07941     0.00106
    32.93309     0.07872     0.00107
    32.93309     0.07954     0.00105
    32.93309     0.07884     0.00106
    32.93309     0.07871     0.00106
    17.18126     0.08135     0.00099
    17.18126     0.08044     0.00100
    17.18126     0.08160     0.00098
    17.18126     0.08065     0.00100
    17.18126     0.08060     0.00101
    11.77949     0.15334    -0.00078
    11.77949     0.15135    -0.00076
    11.77949     0.15554    -0.00083
    11.77949     0.15418    -0.00083
    11.77949     0.15395    -0.00080
     8.74188     0.23435    -0.00293
     8.74188     0.23390    -0.00295
     8.74188     0.24200    -0.00308
     8.74188     0.24665    -0.00330
     8.74188     0.24624    -0.00336
    10.40135     0.16106    -0.00136
    10.40135     0.16105    -0.00136
    10.40135     0.16105    -0.00136
    10.40135     0.16073    -0.00134
    10.40135     0.16071    -0.00133
    15.29899     0.08459     0.00080
    15.29899     0.08437     0.00080
    15.29899     0.08387     0.00082
    15.29899     0.08349     0.00085
    15.29899     0.08358     0.00085
    21.30807     0.04616     0.00185
    21.30807     0.04579     0.00186
    21.30807     0.04561     0.00186
    21.30807     0.04508     0.00189
    21.30807     0.04509     0.00189
    27.71483     0.04556     0.00188
    27.71483     0.04504     0.00189
    27.71483     0.04526     0.00189
    27.71483     0.04458     0.00191
    27.71483     0.04459     0.00191
    23.36104     0.04556     0.00188
    23.36104     0.04504     0.00189
    23.36104     0.04526     0.00189
    23.36104     0.04458     0.00191
    23.36104     0.04459     0.00191
    17.62043     0.07941     0.00106
    17.62043     0.07872     0.00107
    17.62043     0.07954     0.00105
    17.62043     0.07884     0.00106
    17.62043     0.07871     0.00106
    13.01248     0.13951    -0.00031
    13.01248     0.13918    -0.00031
    13.01248     0.14071    -0.00035
    13.01248     0.14125    -0.00036
    13.01248     0.14115    -0.00036
    11.05770     0.18564    -0.00133
    11.05770     0.18779    -0.00139
    11.05770     0.18779    -0.00139
    11.05770     0.19220    -0.00162
    11.05770     0.19043    -0.00178
    13.01248     0.13951    -0.00031
    13.01248     0.14071    -0.00035
    13.01248     0.13918    -0.00031
    13.01248     0.14125    -0.00036
    13.01248     0.14115    -0.00036
    17.62043     0.07941     0.00106
    17.62043     0.07954     0.00105
    17.62043     0.07872     0.00107
    17.62043     0.07884     0.00106
    17.62043     0.07871     0.00106
    23.36104     0.04556     0.00188
    23.36104     0.04526     0.00189
    23.36104     0.04504     0.00189
    23.36104     0.04458     0.00191
    23.36104     0.04459     0.00191
    29.83931     0.04616     0.00185
    29.83931     0.04579     0.00186
    29.83931     0.04561     0.00186
    29.83931     0.04508     0.00189
    29.83931     0.04509     0.00189
    24.00639     0.04501     0.00191
    24.00639     0.04458     0.00192
    24.00639     0.04465     0.00191
    24.00639     0.04405     0.00193
    24.00639     0.04402     0.00193
    18.87676     0.07561     0.00124
    18.87676     0.07531     0.00125
    18.87676     0.07553     0.00123
    18.87676     0.07532     0.00123
    18.87676     0.07515     0.00122
    15.18094     0.12614     0.00026
    15.18094     0.12668     0.00024
    15.18094     0.12668     0.00024
    15.18094     0.12810     0.00019
    15.18094     0.12771     0.00017
    14.09586     0.16396    -0.00024
    14.09586     0.16673    -0.00028
    14.09586     0.16491    -0.00023
    14.09586     0.17095    -0.00032
    14.09586     0.17136    -0.00029
    16.15640     0.13118     0.00006
    16.15640     0.13262     0.00001
    16.15640     0.13068     0.00006
    16.15640     0.13300    -0.00004
    16.15640     0.13246    -0.00006
    20.43204     0.07941     0.00106
    20.43204     0.07954     0.00105
    20.43204     0.07872     0.00107
    20.43204     0.07884     0.00106
    20.43204     0.07871     0.00106
    11.77949     0.15334    -0.00078
    11.77949     0.15554    -0.00083
    11.77949     0.15135    -0.00076
    11.77949     0.15418    -0.00083
    11.77949     0.15395    -0.00080
    14.79105     0.08706     0.00068
    14.79105     0.08689     0.00068
    14.79105     0.08608     0.00071
    14.79105     0.08561     0.00074
    14.79105     0.08573     0.00075
    19.82164     0.04750     0.00177
    19.82164     0.04702     0.00178
    19.82164     0.04698     0.00179
    19.82164     0.04626     0.00182
    19.82164     0.04632     0.00183
    25.71231     0.04474     0.00193
    25.71231     0.04436     0.00193
    25.71231     0.04436     0.00193
    25.71231     0.04386     0.00196
    25.71231     0.04383     0.00195
    31.99144     0.07561     0.00124
    31.99144     0.07553     0.00123
    31.99144     0.07531     0.00125
    31.99144     0.07532     0.00123
    31.99144     0.07515     0.00122
    38.46927     0.13118     0.00006
    38.46927     0.13262     0.00001
    38.46927     0.13068     0.00006
    38.46927     0.13300    -0.00004
    38.46927     0.13246    -0.00006
    45.06019     0.18816    -0.00094
    45.06019     0.19374    -0.00102
    45.06019     0.18710    -0.00094
    45.06019     0.19692    -0.00113
    45.06019     0.19626    -0.00112
     8.74188     0.23435    -0.00293
     8.74188     0.24200    -0.00308
     8.74188     0.23390    -0.00295
     8.74188     0.24665    -0.00330
     8.74188     0.24624    -0.00336
     8.81022     0.18701    -0.00249
     8.81022     0.18779    -0.00251
     8.81022     0.18366    -0.00241
     8.81022     0.18292    -0.00235
     8.81022     0.18310    -0.00235
    13.15001     0.09520     0.00017
    13.15001     0.09420     0.00020
    13.15001     0.09389     0.00021
    13.15001     0.09186     0.00029
    13.15001     0.09195     0.00027
    19.03495     0.04837     0.00169
    19.03495     0.04779     0.00170
    19.03495     0.04779     0.00170
    19.03495     0.04679     0.00174
    19.03495     0.04673     0.00173
    25.41336     0.04456     0.00195
    25.41336     0.04420     0.00196
    25.41336     0.04417     0.00196
    25.41336     0.04375     0.00199
    25.41336     0.04382     0.00199
    31.99144     0.07561     0.00124
    31.99144     0.07553     0.00123
    31.99144     0.07531     0.00125
    31.99144     0.07532     0.00123
    31.99144     0.07515     0.00122
    38.66741     0.13951    -0.00031
    38.66741     0.14071    -0.00035
    38.66741     0.13918    -0.00031
    38.66741     0.14125    -0.00036
    38.66741     0.14115    -0.00036
    10.40135     0.16106    -0.00136
    10.40135     0.16105    -0.00136
    10.40135     0.16105    -0.00136
    10.40135     0.16073    -0.00134
    10.40135     0.16071    -0.00133
     5.52885     0.34385    -0.00742
     5.52885     0.34974    -0.00759
     5.52885     0.34974    -0.00759
     5.52885     0.36578    -0.00816
     5.52885     0.36885    -0.00828
     6.85943     0.23959    -0.00493
     6.85943     0.23185    -0.00470
     6.85943     0.23185    -0.00470
     6.85943     0.21919    -0.00425
     6.85943     0.22039    -0.00429
    12.55543     0.09974    -0.00010
    12.55543     0.09822    -0.00004
    12.55543     0.09821    -0.00004
    12.55543     0.09538     0.00007
    12.55543     0.09565     0.00005
    19.03495     0.04837     0.00169
    19.03495     0.04779     0.00170
    19.03495     0.04779     0.00170
    19.03495     0.04679     0.00174
    19.03495     0.04673     0.00173
    25.71231     0.04474     0.00193
    25.71231     0.04436     0.00193
    25.71231     0.04436     0.00193
    25.71231     0.04386     0.00196
    25.71231     0.04383     0.00195
    32.46568     0.07929     0.00105
    32.46568     0.07899     0.00105
    32.46568     0.07899     0.00105
    32.46568     0.07864     0.00106
    32.46568     0.07851     0.00105
    15.29899     0.08459     0.00080
    15.29899     0.08387     0.00082
    15.29899     0.08437     0.00080
    15.29899     0.08349     0.00085
    15.29899     0.08358     0.00085
     8.81022     0.18701    -0.00249
     8.81022     0.18366    -0.00241
     8.81022     0.18780    -0.00251
     8.81022     0.18292    -0.00235
     8.81022     0.18310    -0.00235
     3.90949     0.52015    -0.01318
     3.90949     0.48801    -0.01240
     3.90949     0.57214    -0.01443
     3.90949     0.59199    -0.01442
     3.90949     0.60198    -0.01319
     6.85943     0.23959    -0.00493
     6.85943     0.23185    -0.00470
     6.85943     0.23185    -0.00470
     6.85943     0.21919    -0.00425
     6.85943     0.22039    -0.00429
    13.15001     0.09520     0.00017
    13.15001     0.09420     0.00020
    13.15001     0.09389     0.00021
    13.15001     0.09186     0.00029
    13.15001     0.09195     0.00027
    19.82164     0.04750     0.00177
    19.82164     0.04702     0.00178
    19.82164     0.04698     0.00179
    19.82164     0.04626     0.00182
    19.82164     0.04632     0.00183
    26.58901     0.04534     0.00188
    26.58901     0.04486     0.00189
    26.58901     0.04493     0.00188
    26.58901     0.04423     0.00190
    26.58901     0.04411     0.00190
    21.30807     0.04616     0.00185
    21.30807     0.04561     0.00186
    21.30807     0.04579     0.00186
    21.30807     0.04508     0.00189
    21.30807     0.04509     0.00189
    14.79105     0.08706     0.00068
    14.79105     0.08608     0.00071
    14.79105     0.08689     0.00068
    14.79105     0.08561     0.00074
    14.79105     0.08573     0.00075
     8.81022     0.18701    -0.00249
     8.81022     0.18366    -0.00241
     8.81022     0.18780    -0.00251
     8.81022     0.18292    -0.00235
     8.81022     0.18310    -0.00235
     5.52885     0.34385    -0.00742
     5.52885     0.34974    -0.00759
     5.52885     0.34974    -0.00759
     5.52885     0.36578    -0.00816
     5.52885     0.36885    -0.00828
     8.81022     0.18701    -0.00249
     8.81022     0.18779    -0.00251
     8.81022     0.18366    -0.00241
     8.81022     0.18292    -0.00235
     8.81022     0.18310    -0.00235
    14.79105     0.08706     0.00068
    14.79105     0.08689     0.00068
    14.79105     0.08608     0.00071
    14.79105     0.08561     0.00074
    14.79105     0.08573     0.00075
    21.30807     0.04616     0.00185
    21.30807     0.04579     0.00186
    21.30807     0.04561     0.00186
    21.30807     0.04508     0.00189
    21.30807     0.04509     0.00189
    27.71483     0.04556     0.00188
    27.71483     0.04526     0.00189
    27.71483     0.04504     0.00189
    27.71483     0.04458     0.00191
    27.71483     0.04459     0.00191
    21.30807     0.04616     0.00185
    21.30807     0.04561     0.00186
    21.30807     0.04579     0.00186
    21.30807     0.04508     0.00189
    21.30807     0.04509     0.00189
    15.29899     0.08459     0.00080
    15.29899     0.08387     0.00082
    15.29899     0.08437     0.00080
    15.29899     0.08349     0.00085
    15.29899     0.08358     0.00085
    10.40135     0.16106    -0.00136
    10.40135     0.16105    -0.00136
    10.40135     0.16105    -0.00136
    10.40135     0.16073    -0.00134
    10.40135     0.16071    -0.00133
     8.74188     0.23435    -0.00293
     8.74188     0.24200    -0.00308
     8.74188     0.23390    -0.00295
     8.74188     0.24665    -0.00330
     8.74188     0.24624    -0.00336
    11.77949     0.15334    -0.00078
    11.77949     0.15554    -0.00083
    11.77949     0.15135    -0.00076
    11.77949     0.15418    -0.00083
    11.77949     0.15395    -0.00080
    17.18126     0.08135     0.00099
    17.18126     0.08160     0.00098
    17.18126     0.08044     0.00100
    17.18126     0.08065     0.00100
    17.18126     0.08060     0.00101
    34.29713     0.08135     0.00099
    34.29713     0.08160     0.00098
    34.29713     0.08044     0.00100
    34.29713     0.08065     0.00100
    34.29713     0.08060     0.00101
    27.98921     0.04616     0.00185
    27.98921     0.04579     0.00186
    27.98921     0.04561     0.00186
    27.98921     0.04508     0.00189
    27.98921     0.04509     0.00189
    22.01368     0.04534     0.00188
    22.01368     0.04486     0.00189
    22.01368     0.04493     0.00188
    22.01368     0.04423     0.00190
    22.01368     0.04411     0.00190
    16.73056     0.07929     0.00105
    16.73056     0.07899     0.00105
    16.73056     0.07899     0.00105
    16.73056     0.07864     0.00106
    16.73056     0.07851     0.00105
    13.01248     0.13951    -0.00031
    13.01248     0.14071    -0.00035
    13.01248     0.13918    -0.00031
    13.01248     0.14125    -0.00036
    13.01248     0.14115    -0.00036
    12.36289     0.18816    -0.00094
    12.36289     0.19374    -0.00102
    12.36289     0.18710    -0.00094
    12.36289     0.19692    -0.00113
    12.36289     0.19626    -0.00112
    15.18094     0.14181    -0.00025
    15.18094     0.14424    -0.00029
    15.18094     0.14004    -0.00025
    15.18094     0.14339    -0.00034
    15.18094     0.14292    -0.00034
    11.72847     0.21122    -0.00106
    11.72847     0.22245    -0.00103
    11.72847     0.20508    -0.00118
    11.72847     0.22355    -0.00133
    11.72847     0.22018    -0.00136
    11.77949     0.15334    -0.00078
    11.77949     0.15554    -0.00083
    11.77949     0.15135    -0.00076
    11.77949     0.15418    -0.00083
    11.77949     0.15395    -0.00080
    15.29899     0.08459     0.00080
    15.29899     0.08437     0.00080
    15.29899     0.08387     0.00082
    15.29899     0.08349     0.00085
    15.29899     0.08358     0.00085
    20.57828     0.04652     0.00182
    20.57828     0.04607     0.00183
    20.57828     0.04607     0.00183
    20.57828     0.04542     0.00186
    20.57828     0.04543     0.00186
    26.58901     0.04534     0.00188
    26.58901     0.04493     0.00188
    26.58901     0.04486     0.00189
    26.58901     0.04423     0.00190
    26.58901     0.04411     0.00190
    32.93309     0.07941     0.00106
    32.93309     0.07954     0.00105
    32.93309     0.07872     0.00107
    32.93309     0.07884     0.00106
    32.93309     0.07871     0.00106
    39.45003     0.14181    -0.00025
    39.45003     0.14424    -0.00029
    39.45003     0.14004    -0.00025
    39.45003     0.14339    -0.00034
    39.45003     0.14292    -0.00034
    11.77949     0.15334    -0.00078
    11.77949     0.15554    -0.00083
    11.77949     0.15135    -0.00076
    11.77949     0.15418    -0.00083
    11.77949     0.15395    -0.00080
     7.81898     0.29119    -0.00384
     7.81898     0.31400    -0.00400
     7.81898     0.27765    -0.00392
     7.81898     0.31330    -0.00445
     7.81898     0.30717    -0.00431
     8.81022     0.18701    -0.00249
     8.81022     0.18779    -0.00251
     8.81022     0.18366    -0.00241
     8.81022     0.18292    -0.00235
     8.81022     0.18310    -0.00235
    13.71885     0.09167     0.00039
    13.71885     0.09079     0.00042
    13.71885     0.09079     0.00042
    13.71885     0.08920     0.00049
    13.71885     0.08932     0.00048
    19.82164     0.04750     0.00177
    19.82164     0.04698     0.00179
    19.82164     0.04702     0.00178
    19.82164     0.04626     0.00182
    19.82164     0.04632     0.00183
    26.30002     0.04501     0.00191
    26.30002     0.04465     0.00191
    26.30002     0.04458     0.00192
    26.30002     0.04405     0.00193
    26.30002     0.04402     0.00193
    32.93309     0.07941     0.00106
    32.93309     0.07954     0.00105
    32.93309     0.07872     0.00107
    32.93309     0.07884     0.00106
    32.93309     0.07871     0.00106
    15.29899     0.08459     0.00080
    15.29899     0.08437     0.00080
    15.29899     0.08387     0.00082
    15.29899     0.08349     0.00085
    15.29899     0.08358     0.00085
     8.81022     0.18701    -0.00249
     8.81022     0.18779    -0.00251
     8.81022     0.18366    -0.00241
     8.81022     0.18292    -0.00235
     8.81022     0.18310    -0.00235
     3.90949     0.52015    -0.01318
     3.90949     0.57214    -0.01443
     3.90949     0.48801    -0.01240
     3.90949     0.59199    -0.01442
     3.90949     0.60198    -0.01319
     6.85943     0.23959    -0.00493
     6.85943     0.23185    -0.00470
     6.85943     0.23185    -0.00470
     6.85943     0.21919    -0.00425
     6.85943     0.22039    -0.00429
    13.15001     0.09520     0.00017
    13.15001     0.09389     0.00021
    13.15001     0.09420     0.00020
    13.15001     0.09186     0.00029
    13.15001     0.09195     0.00027
    19.82164     0.04750     0.00177
    19.82164     0.04698     0.00179
    19.82164     0.04702     0.00178
    19.82164     0.04626     0.00182
    19.82164     0.04632     0.00183
    26.58901     0.04534     0.00188
    26.58901     0.04493     0.00188
    26.58901     0.04486     0.00189
    26.58901     0.04423     0.00190
    26.58901     0.04411     0.00190
    20.57828     0.04652     0.00182
    20.57828     0.04607     0.00183
    20.57828     0.04607     0.00183
    20.57828     0.04542     0.00186
    20.57828     0.04543     0.00186
    13.71885     0.09167     0.00039
    13.71885     0.09079     0.00042
    13.71885     0.09079     0.00042
    13.71885     0.08920     0.00049
    13.71885     0.08932     0.00048
     6.85943     0.23959    -0.00493
     6.85943     0.23185    -0.00470
     6.85943     0.23185    -0.00470
     6.85943     0.21919    -0.00425
     6.85943     0.22039    -0.00429
     0.00000     1.24815    -0.04357
     0.00000     1.30285    -0.04541
     0.00000     1.30286    -0.04541
     0.00000     1.66288    -0.05168
     0.00000     2.28613    -0.05389
     6.85943     0.23959    -0.00493
     6.85943     0.23185    -0.00470
     6.85943     0.23185    -0.00470
     6.85943     0.21919    -0.00425
     6.85943     0.22039    -0.00429
    13.71885     0.09167     0.00039
    13.71885     0.09079     0.00042
    13.71885     0.09079     0.00042
    13.71885     0.08920     0.00049
    13.71885     0.08932     0.00048
    20.57828     0.04652     0.00182
    20.57828     0.04607     0.00183
    20.57828     0.04607     0.00183
    20.57828     0.04542     0.00186
    20.57828     0.04543     0.00186
    26.58901     0.04534     0.00188
    26.58901     0.04493     0.00188
    26.58901     0.04486     0.00189
    26.58901     0.04423     0.00190
    26.58901     0.04411     0.00190
    19.82164     0.04750     0.00177
    19.82164     0.04698     0.00179
    19.82164     0.04702     0.00178
    19.82164     0.04626     0.00182
    19.82164     0.04632     0.00183
    13.15001     0.09520     0.00017
    13.15001     0.09389     0.00021
    13.15001     0.09420     0.00020
    13.15001     0.09186     0.00029
    13.15001     0.09195     0.00027
     6.85943     0.23959    -0.00493
     6.85943     0.23185    -0.00470
     6.85943     0.23185    -0.00470
     6.85943     0.21919    -0.00425
     6.85943     0.22039    -0.00429
     3.90949     0.52015    -0.01318
     3.90949     0.57214    -0.01443
     3.90949     0.48801    -0.01240
     3.90949     0.59199    -0.01442
     3.90949     0.60198    -0.01319
     8.81022     0.18701    -0.00249
     8.81022     0.18779    -0.00251
     8.81022     0.18366    -0.00241
     8.81022     0.18292    -0.00235
     8.81022     0.18310    -0.00235
    15.29899     0.08459     0.00080
    15.29899     0.08437     0.00080
    15.29899     0.08387     0.00082
    15.29899     0.08349     0.00085
    15.29899     0.08358     0.00085
    32.93309     0.07941     0.00106
    32.93309     0.07954     0.00105
    32.93309     0.07872     0.00107
    32.93309     0.07884     0.00106
    32.93309     0.07871     0.00106
    26.30002     0.04501     0.00191
    26.30002     0.04465     0.00191
    26.30002     0.04458     0.00192
    26.30002     0.04405     0.00193
    26.30002     0.04402     0.00193
    19.82164     0.04750     0.00177
    19.82164     0.04698     0.00179
    19.82164     0.04702     0.00178
    19.82164     0.04626     0.00182
    19.82164     0.04632     0.00183
    13.71885     0.09167     0.00039
    13.71885     0.09079     0.00042
    13.71885     0.09079     0.00042
    13.71885     0.08920     0.00049
    13.71885     0.08932     0.00048
     8.81022     0.18701    -0.00249
     8.81022     0.18779    -0.00251
     8.81022     0.18366    -0.00241
     8.81022     0.18292    -0.00235
     8.81022     0.18310    -0.00235
     7.81898     0.29119    -0.00384
     7.81898     0.31400    -0.00400
     7.81898     0.27765    -0.00392
     7.81898     0.31330    -0.00445
     7.81898     0.30717    -0.00431
    11.77949     0.15334    -0.00078
    11.77949     0.15554    -0.00083
    11.77949     0.15135    -0.00076
    11.77949     0.15418    -0.00083
    11.77949     0.15395    -0.00080
    39.45003     0.14181    -0.00025
    39.45003     0.14424    -0.00029
    39.45003     0.14004    -0.00025
    39.45003     0.14339    -0.00034
    39.45003     0.14292    -0.00034
    32.93309     0.07941     0.00106
    32.93309     0.07954     0.00105
    32.93309     0.07872     0.00107
    32.93309     0.07884     0.00106
    32.93309     0.07871     0.00106
    26.58901     0.04534     0.00188
    26.58901     0.04493     0.00188
    26.58901     0.04486     0.00189
    26.58901     0.04423     0.00190
    26.58901     0.04411     0.00190
    20.57828     0.04652     0.00182
    20.57828     0.04607     0.00183
    20.57828     0.04607     0.00183
    20.57828     0.04542     0.00186
    20.57828     0.04543     0.00186
    15.29899     0.08459     0.00080
    15.29899     0.08437     0.00080
    15.29899     0.08387     0.00082
    15.29899     0.08349     0.00085
    15.29899     0.08358     0.00085
    11.77949     0.15334    -0.00078
    11.77949     0.15554    -0.00083
    11.77949     0.15135    -0.00076
    11.77949     0.15418    -0.00083
    11.77949     0.15395    -0.00080
    11.72847     0.21122    -0.00106
    11.72847     0.22245    -0.00103
    11.72847     0.20508    -0.00118
    11.72847     0.22355    -0.00133
    11.72847     0.22018    -0.00136
    15.18094     0.14181    -0.00025
    15.18094     0.14424    -0.00029
    15.18094     0.14004    -0.00025
    15.18094     0.14339    -0.00034
    15.18094     0.14292    -0.00034
    12.36289     0.18816    -0.00094
    12.36289     0.19374    -0.00102
    12.36289     0.18710    -0.00094
    12.36289     0.19692    -0.00113
    12.36289     0.19626    -0.00112
    13.01248     0.13951    -0.00031
    13.01248     0.14071    -0.00035
    13.01248     0.13918    -0.00031
    13.01248     0.14125    -0.00036
    13.01248     0.14115    -0.00036
    16.73056     0.07929     0.00105
    16.73056     0.07899     0.00105
    16.73056     0.07899     0.00105
    16.73056     0.07864     0.00106
    16.73056     0.07851     0.00105
    22.01368     0.04534     0.00188
    22.01368     0.04486     0.00189
    22.01368     0.04493     0.00188
    22.01368     0.04423     0.00190
    22.01368     0.04411     0.00190
    27.98921     0.04616     0.00185
    27.98921     0.04579     0.00186
    27.98921     0.04561     0.00186
    27.98921     0.04508     0.00189
    27.98921     0.04509     0.00189
    34.29713     0.08135     0.00099
    34.29713     0.08160     0.00098
    34.29713     0.08044     0.00100
    34.29713     0.08065     0.00100
    34.29713     0.08060     0.00101
    17.18126     0.08135     0.00099
    17.18126     0.08160     0.00098
    17.18126     0.08044     0.00100
    17.18126     0.08065     0.00100
    17.18126     0.08060     0.00101
    11.77949     0.15334    -0.00078
    11.77949     0.15554    -0.00083
    11.77949     0.15135    -0.00076
    11.77949     0.15418    -0.00083
    11.77949     0.15395    -0.00080
     8.74188     0.23435    -0.00293
     8.74188     0.24200    -0.00308
     8.74188     0.23390    -0.00295
     8.74188     0.24665    -0.00330
     8.74188     0.24624    -0.00336
    10.40135     0.16106    -0.00136
    10.40135     0.16105    -0.00136
    10.40135     0.16105    -0.00136
    10.40135     0.16073    -0.00134
    10.40135     0.16071    -0.00133
    15.29899     0.08459     0.00080
    15.29899     0.08387     0.00082
    15.29899     0.08437     0.00080
    15.29899     0.08349     0.00085
    15.29899     0.08358     0.00085
    21.30807     0.04616     0.00185
    21.30807     0.04561     0.00186
    21.30807     0.04579     0.00186
    21.30807     0.04508     0.00189
    21.30807     0.04509     0.00189
    27.71483     0.04556     0.00188
    27.71483     0.04526     0.00189
    27.71483     0.04504     0.00189
    27.71483     0.04458     0.00191
    27.71483     0.04459     0.00191
    21.30807     0.04616     0.00185
    21.30807     0.04579     0.00186
    21.30807     0.04561     0.00186
    21.30807     0.04508     0.00189
    21.30807     0.04509     0.00189
    14.79105     0.08706     0.00068
    14.79105     0.08689     0.00068
    14.79105     0.08608     0.00071
    14.79105     0.08561     0.00074
    14.79105     0.08573     0.00075
     8.81022     0.18701    -0.00249
     8.81022     0.18779    -0.00251
     8.81022     0.18366    -0.00241
     8.81022     0.18292    -0.00235
     8.81022     0.18310    -0.00235
     5.52885     0.34385    -0.00742
     5.52885     0.34974    -0.00759
     5.52885     0.34974    -0.00759
     5.52885     0.36578    -0.00816
     5.52885     0.36885    -0.00828
     8.81022     0.18701    -0.00249
     8.81022     0.18366    -0.00241
     8.81022     0.18780    -0.00251
     8.81022     0.18292    -0.00235
     8.81022     0.18310    -0.00235
    14.79105     0.08706     0.00068
    14.79105     0.08608     0.00071
    14.79105     0.08689     0.00068
    14.79105     0.08561     0.00074
    14.79105     0.08573     0.00075
    21.30807     0.04616     0.00185
    21.30807     0.04561     0.00186
    21.30807     0.04579     0.00186
    21.30807     0.04508     0.00189
    21.30807     0.04509     0.00189
    26.58901     0.04534     0.00188
    26.58901     0.04486     0.00189
    26.58901     0.04493     0.00188
    26.58901     0.04423     0.00190
    26.58901     0.04411     0.00190
    19.82164     0.04750     0.00177
    19.82164     0.04702     0.00178
    19.82164     0.04698     0.00179
    19.82164     0.04626     0.00182
    19.82164     0.04632     0.00183
    13.15001     0.09520     0.00017
    13.15001     0.09420     0.00020
    13.15001     0.09389     0.00021
    13.15001     0.09186     0.00029
    13.15001     0.09195     0.00027
     6.85943     0.23959    -0.00493
     6.85943     0.23185    -0.00470
     6.85943     0.23185    -0.00470
     6.85943     0.21919    -0.00425
     6.85943     0.22039    -0.00429
     3.90949     0.52015    -0.01318
     3.90949     0.48801    -0.01240
     3.90949     0.57214    -0.01443
     3.90949     0.59199    -0.01442
     3.90949     0.60198    -0.01319
     8.81022     0.18701    -0.00249
     8.81022     0.18366    -0.00241
     8.81022     0.18780    -0.00251
     8.81022     0.18292    -0.00235
     8.81022     0.18310    -0.00235
    15.29899     0.08459     0.00080
    15.29899     0.08387     0.00082
    15.29899     0.08437     0.00080
    15.29899     0.08349     0.00085
    15.29899     0.08358     0.00085
    32.46568     0.07929     0.00105
    32.46568     0.07899     0.00105
    32.46568     0.07899     0.00105
    32.46568     0.07864     0.00106
    32.46568     0.07851     0.00105
    25.71231     0.04474     0.00193
    25.71231     0.04436     0.00193
    25.71231     0.04436     0.00193
    25.71231     0.04386     0.00196
    25.71231     0.04383     0.00195
    19.03495     0.04837     0.00169
    19.03495     0.04779     0.00170
    19.03495     0.04779     0.00170
    19.03495     0.04679     0.00174
    19.03495     0.04673     0.00173
    12.55543     0.09974    -0.00010
    12.55543     0.09822    -0.00004
    12.55543     0.09821    -0.00004
    12.55543     0.09538     0.00007
    12.55543     0.09565     0.00005
     6.85943     0.23959    -0.00493
     6.85943     0.23185    -0.00470
     6.85943     0.23185    -0.00470
     6.85943     0.21919    -0.00425
     6.85943     0.22039    -0.00429
     5.52885     0.34385    -0.00742
     5.52885     0.34974    -0.00759
     5.52885     0.34974    -0.00759
     5.52885     0.36578    -0.00816
     5.52885     0.36885    -0.00828
    10.40135     0.16106    -0.00136
    10.40135     0.16105    -0.00136
    10.40135     0.16105    -0.00136
    10.40135     0.16073    -0.00134
    10.40135     0.16071    -0.00133
    38.66741     0.13951    -0.00031
    38.66741     0.14071    -0.00035
    38.66741     0.13918    -0.00031
    38.66741     0.14125    -0.00036
    38.66741     0.14115    -0.00036
    31.99144     0.07561     0.00124
    31.99144     0.07553     0.00123
    31.99144     0.07531     0.00125
    31.99144     0.07532     0.00123
    31.99144     0.07515     0.00122
    25.41336     0.04456     0.00195
    25.41336     0.04420     0.00196
    25.41336     0.04417     0.00196
    25.41336     0.04375     0.00199
    25.41336     0.04382     0.00199
    19.03495     0.04837     0.00169
    19.03495     0.04779     0.00170
    19.03495     0.04779     0.00170
    19.03495     0.04679     0.00174
    19.03495     0.04673     0.00173
    13.15001     0.09520     0.00017
    13.15001     0.09420     0.00020
    13.15001     0.09389     0.00021
    13.15001     0.09186     0.00029
    13.15001     0.09195     0.00027
     8.81022     0.18701    -0.00249
     8.81022     0.18779    -0.00251
     8.81022     0.18366    -0.00241
     8.81022     0.18292    -0.00235
     8.81022     0.18310    -0.00235
     8.74188     0.23435    -0.00293
     8.74188     0.24200    -0.00308
     8.74188     0.23390    -0.00295
     8.74188     0.24665    -0.00330
     8.74188     0.24624    -0.00336
    45.06019     0.18816    -0.00094
    45.06019     0.19374    -0.00102
    45.06019     0.18710    -0.00094
    45.06019     0.19692    -0.00113
    45.06019     0.19626    -0.00112
    38.46927     0.13118     0.00006
    38.46927     0.13262     0.00001
    38.46927     0.13068     0.00006
    38.46927     0.13300    -0.00004
    38.46927     0.13246    -0.00006
    31.99144     0.07561     0.00124
    31.99144     0.07553     0.00123
    31.99144     0.07531     0.00125
    31.99144     0.07532     0.00123
    31.99144     0.07515     0.00122
    25.71231     0.04474     0.00193
    25.71231     0.04436     0.00193
    25.71231     0.04436     0.00193
    25.71231     0.04386     0.00196
    25.71231     0.04383     0.00195
    19.82164     0.04750     0.00177
    19.82164     0.04702     0.00178
    19.82164     0.04698     0.00179
    19.82164     0.04626     0.00182
    19.82164     0.04632     0.00183
    14.79105     0.08706     0.00068
    14.79105     0.08689     0.00068
    14.79105     0.08608     0.00071
    14.79105     0.08561     0.00074
    14.79105     0.08573     0.00075
    11.77949     0.15334    -0.00078
    11.77949     0.15554    -0.00083
    11.77949     0.15135    -0.00076
    11.77949     0.15418    -0.00083
    11.77949     0.15395    -0.00080
    20.43204     0.07941     0.00106
    20.43204     0.07954     0.00105
    20.43204     0.07872     0.00107
    20.43204     0.07884     0.00106
    20.43204     0.07871     0.00106
    16.15640     0.13118     0.00006
    16.15640     0.13262     0.00001
    16.15640     0.13068     0.00006
    16.15640     0.13300    -0.00004
    16.15640     0.13246    -0.00006
    14.09586     0.16396    -0.00024
    14.09586     0.16673    -0.00028
    14.09586     0.16491    -0.00023
    14.09586     0.17095    -0.00032
    14.09586     0.17136    -0.00029
    15.18094     0.12614     0.00026
    15.18094     0.12668     0.00024
    15.18094     0.12668     0.00024
    15.18094     0.12810     0.00019
    15.18094     0.12771     0.00017
    18.87676     0.07561     0.00124
    18.87676     0.07531     0.00125
    18.87676     0.07553     0.00123
    18.87676     0.07532     0.00123
    18.87676     0.07515     0.00122
    24.00639     0.04501     0.00191
    24.00639     0.04458     0.00192
    24.00639     0.04465     0.00191
    24.00639     0.04405     0.00193
    24.00639     0.04402     0.00193
    29.83931     0.04616     0.00185
    29.83931     0.04579     0.00186
    29.83931     0.04561     0.00186
    29.83931     0.04508     0.00189
    29.83931     0.04509     0.00189
    23.36104     0.04556     0.00188
    23.36104     0.04526     0.00189
    23.36104     0.04504     0.00189
    23.36104     0.04458     0.00191
    23.36104     0.04459     0.00191
    17.62043     0.07941     0.00106
    17.62043     0.07954     0.00105
    17.62043     0.07872     0.00107
    17.62043     0.07884     0.00106
    17.62043     0.07871     0.00106
    13.01248     0.13951    -0.00031
    13.01248     0.14071    -0.00035
    13.01248     0.13918    -0.00031
    13.01248     0.14125    -0.00036
    13.01248     0.14115    -0.00036
    11.05770     0.18564    -0.00133
    11.05770     0.18779    -0.00139
    11.05770     0.18779    -0.00139
    11.05770     0.19220    -0.00162
    11.05770     0.19043    -0.00178
    13.01248     0.13951    -0.00031
    13.01248     0.13918    -0.00031
    13.01248     0.14071    -0.00035
    13.01248     0.14125    -0.00036
    13.01248     0.14115    -0.00036
    17.62043     0.07941     0.00106
    17.62043     0.07872     0.00107
    17.62043     0.07954     0.00105
    17.62043     0.07884     0.00106
    17.62043     0.07871     0.00106
    23.36104     0.04556     0.00188
    23.36104     0.04504     0.00189
    23.36104     0.04526     0.00189
    23.36104     0.04458     0.00191
    23.36104     0.04459     0.00191
    27.71483     0.04556     0.00188
    27.71483     0.04504     0.00189
    27.71483     0.04526     0.00189
    27.71483     0.04458     0.00191
    27.71483     0.04459     0.00191
    21.30807     0.04616     0.00185
    21.30807     0.04579     0.00186
    21.30807     0.04561     0.00186
    21.30807     0.04508     0.00189
    21.30807     0.04509     0.00189
    15.29899     0.08459     0.00080
    15.29899     0.08437     0.00080
    15.29899     0.08387     0.00082
    15.29899     0.08349     0.00085
    15.29899     0.08358     0.00085
    10.40135     0.16106    -0.00136
    10.40135     0.16105    -0.00136
    10.40135     0.16105    -0.00136
    10.40135     0.16073    -0.00134
    10.40135     0.16071    -0.00133
     8.74188     0.23435    -0.00293
     8.74188     0.23390    -0.00295
     8.74188     0.24200    -0.00308
     8.74188     0.24665    -0.00330
     8.74188     0.24624    -0.00336
    11.77949     0.15334    -0.00078
    11.77949     0.15135    -0.00076
    11.77949     0.15554    -0.00083
    11.77949     0.15418    -0.00083
    11.77949     0.15395    -0.00080
    17.18126     0.08135     0.00099
    17.18126     0.08044     0.00100
    17.18126     0.08160     0.00098
    17.18126     0.08065     0.00100
    17.18126     0.08060     0.00101
    32.93309     0.07941     0.00106
    32.93309     0.07872     0.00107
    32.93309     0.07954     0.00105
    32.93309     0.07884     0.00106
    32.93309     0.07871     0.00106
    26.30002     0.04501     0.00191
    26.30002     0.04458     0.00192
    26.30002     0.04465     0.00191
    26.30002     0.04405     0.00193
    26.30002     0.04402     0.00193
    19.82164     0.04750     0.00177
    19.82164     0.04702     0.00178
    19.82164     0.04698     0.00179
    19.82164     0.04626     0.00182
    19.82164     0.04632     0.00183
    13.71885     0.09167     0.00039
    13.71885     0.09079     0.00042
    13.71885     0.09079     0.00042
    13.71885     0.08920     0.00049
    13.71885     0.08932     0.00048
     8.81022     0.18701    -0.00249
     8.81022     0.18366    -0.00241
     8.81022     0.18780    -0.00251
     8.81022     0.18292    -0.00235
     8.81022     0.18310    -0.00235
     7.81898     0.29119    -0.00384
     7.81898     0.27766    -0.00392
     7.81898     0.31400    -0.00400
     7.81898     0.31330    -0.00445
     7.81898     0.30717    -0.00431
    11.77949     0.15334    -0.00078
    11.77949     0.15135    -0.00076
    11.77949     0.15554    -0.00083
    11.77949     0.15418    -0.00083
    11.77949     0.15395    -0.00080
    38.66741     0.13951    -0.00031
    38.66741     0.13918    -0.00031
    38.66741     0.14071    -0.00035
    38.66741     0.14125    -0.00036
    38.66741     0.14115    -0.00036
    31.99144     0.07561     0.00124
    31.99144     0.07531     0.00125
    31.99144     0.07553     0.00123
    31.99144     0.07532     0.00123
    31.99144     0.07515     0.00122
    25.41336     0.04456     0.00195
    25.41336     0.04417     0.00196
    25.41336     0.04419     0.00196
    25.41336     0.04375     0.00199
    25.41336     0.04382     0.00199
    19.03495     0.04837     0.00169
    19.03495     0.04779     0.00170
    19.03495     0.04779     0.00170
    19.03495     0.04679     0.00174
    19.03495     0.04673     0.00173
    13.15001     0.09520     0.00017
    13.15001     0.09389     0.00021
    13.15001     0.09420     0.00020
    13.15001     0.09186     0.00029
    13.15001     0.09195     0.00027
     8.81022     0.18701    -0.00249
     8.81022     0.18366    -0.00241
     8.81022     0.18780    -0.00251
     8.81022     0.18292    -0.00235
     8.81022     0.18310    -0.00235
     8.74188     0.23435    -0.00293
     8.74188     0.23390    -0.00295
     8.74188     0.24200    -0.00308
     8.74188     0.24665    -0.00330
     8.74188     0.24624    -0.00336
    44.71971     0.18564    -0.00133
    44.71971     0.18779    -0.00139
    44.71971     0.18779    -0.00139
    44.71971     0.19220    -0.00162
    44.71971     0.19043    -0.00178
    38.06989     0.12614     0.00026
    38.06989     0.12668     0.00024
    38.06989     0.12668     0.00024
    38.06989     0.12810     0.00019
    38.06989     0.12771     0.00017
    31.51006     0.07331     0.00142
    31.51006     0.07322     0.00142
    31.51006     0.07321     0.00141
    31.51006     0.07343     0.00142
    31.51006     0.07346     0.00143
    25.11085     0.04391     0.00196
    25.11085     0.04351     0.00197
    25.11085     0.04351     0.00197
    25.11085     0.04283     0.00198
    25.11085     0.04255     0.00196
    19.03495     0.04837     0.00169
    19.03495     0.04779     0.00170
    19.03495     0.04779     0.00170
    19.03495     0.04679     0.00174
    19.03495     0.04673     0.00173
    13.71885     0.09167     0.00039
    13.71885     0.09079     0.00042
    13.71885     0.09079     0.00042
    13.71885     0.08920     0.00049
    13.71885     0.08932     0.00048
    10.40135     0.16106    -0.00136
    10.40135     0.16105    -0.00136
    10.40135     0.16105    -0.00136
    10.40135     0.16073    -0.00134
    10.40135     0.16071    -0.00133
    50.97686     0.13951    -0.00031
    50.97686     0.14071    -0.00035
    50.97686     0.13918    -0.00031
    50.97686     0.14125    -0.00036
    50.97686     0.14115    -0.00036
    44.37662     0.16396    -0.00024
    44.37662     0.16673    -0.00028
    44.37662     0.16491    -0.00023
    44.37662     0.17095    -0.00032
    44.37662     0.17136    -0.00029
    37.86862     0.12118     0.00050
    37.86862     0.12189     0.00047
    37.86862     0.12157     0.00049
    37.86862     0.12325     0.00042
    37.86862     0.12280     0.00041
    31.51006     0.07331     0.00142
    31.51006     0.07322     0.00142
    31.51006     0.07321     0.00141
    31.51006     0.07343     0.00142
    31.51006     0.07346     0.00143
    25.41336     0.04456     0.00195
    25.41336     0.04417     0.00196
    25.41336     0.04419     0.00196
    25.41336     0.04375     0.00199
    25.41336     0.04382     0.00199
    19.82164     0.04750     0.00177
    19.82164     0.04702     0.00178
    19.82164     0.04698     0.00179
    19.82164     0.04626     0.00182
    19.82164     0.04632     0.00183
    15.29900     0.08459     0.00080
    15.29900     0.08437     0.00080
    15.29900     0.08387     0.00082
    15.29900     0.08349     0.00085
    15.29900     0.08358     0.00085
    26.43065     0.04534     0.00188
    26.43065     0.04493     0.00188
    26.43065     0.04486     0.00189
    26.43065     0.04423     0.00190
    26.43065     0.04411     0.00190
    21.52489     0.07561     0.00124
    21.52489     0.07553     0.00123
    21.52489     0.07531     0.00125
    21.52489     0.07532     0.00123
    21.52489     0.07515     0.00122
    17.94897     0.12118     0.00050
    17.94897     0.12189     0.00047
    17.94897     0.12157     0.00049
    17.94897     0.12325     0.00042
    17.94897     0.12280     0.00041
    16.58655     0.14870     0.00032
    16.58655     0.15018     0.00030
    16.58655     0.15019     0.00030
    16.58655     0.15415     0.00026
    16.58655     0.15392     0.00026
    17.94897     0.12118     0.00050
    17.94897     0.12157     0.00049
    17.94897     0.12189     0.00047
    17.94897     0.12325     0.00042
    17.94897     0.12280     0.00041
    21.52489     0.07561     0.00124
    21.52489     0.07531     0.00125
    21.52489     0.07553     0.00123
    21.52489     0.07532     0.00123
    21.52489     0.07515     0.00122
    26.43065     0.04534     0.00188
    26.43065     0.04486     0.00189
    26.43065     0.04493     0.00188
    26.43065     0.04423     0.00190
    26.43065     0.04411     0.00190
    29.83931     0.04616     0.00185
    29.83931     0.04561     0.00186
    29.83931     0.04579     0.00186
    29.83931     0.04508     0.00189
    29.83931     0.04509     0.00189
    24.00639     0.04501     0.00191
    24.00639     0.04465     0.00191
    24.00639     0.04458     0.00192
    24.00639     0.04405     0.00193
    24.00639     0.04402     0.00193
    18.87676     0.07561     0.00124
    18.87676     0.07553     0.00123
    18.87676     0.07531     0.00125
    18.87676     0.07532     0.00123
    18.87676     0.07515     0.00122
    15.18094     0.12614     0.00026
    15.18094     0.12668     0.00024
    15.18094     0.12668     0.00024
    15.18094     0.12810     0.00019
    15.18094     0.12771     0.00017
    14.09586     0.16396    -0.00024
    14.09586     0.16491    -0.00023
    14.09586     0.16673    -0.00028
    14.09586     0.17095    -0.00032
    14.09586     0.17136    -0.00029
    16.15640     0.13118     0.00006
    16.15640     0.13068     0.00006
    16.15640     0.13262     0.00001
    16.15640     0.13300    -0.00004
    16.15640     0.13246    -0.00006
    20.43204     0.07941     0.00106
    20.43204     0.07872     0.00107
    20.43204     0.07954     0.00105
    20.43204     0.07884     0.00106
    20.43204     0.07871     0.00106
    34.29713     0.08135     0.00099
    34.29713     0.08044     0.00100
    34.29713     0.08160     0.00098
    34.29713     0.08065     0.00100
    34.29713     0.08060     0.00101
    27.98921     0.04616     0.00185
    27.98921     0.04561     0.00186
    27.98921     0.04579     0.00186
    27.98921     0.04508     0.00189
    27.98921     0.04509     0.00189
    22.01368     0.04534     0.00188
    22.01368     0.04493     0.00188
    22.01368     0.04486     0.00189
    22.01368     0.04423     0.00190
    22.01368     0.04411     0.00190
    16.73056     0.07929     0.00105
    16.73056     0.07899     0.00105
    16.73056     0.07899     0.00105
    16.73056     0.07864     0.00106
    16.73056     0.07851     0.00105
    13.01248     0.13951    -0.00031
    13.01248     0.13918    -0.00031
    13.01248     0.14071    -0.00035
    13.01248     0.14125    -0.00036
    13.01248     0.14115    -0.00036
    12.36289     0.18816    -0.00094
    12.36289     0.18711    -0.00094
    12.36289     0.19373    -0.00102
    12.36289     0.19692    -0.00113
    12.36289     0.19626    -0.00112
    15.18094     0.14181    -0.00025
    15.18094     0.14005    -0.00025
    15.18094     0.14424    -0.00029
    15.18094     0.14339    -0.00034
    15.18094     0.14292    -0.00034
    39.45003     0.14181    -0.00025
    39.45003     0.14005    -0.00025
    39.45003     0.14424    -0.00029
    39.45003     0.14339    -0.00034
    39.45003     0.14292    -0.00034
    32.93309     0.07941     0.00106
    32.93309     0.07872     0.00107
    32.93309     0.07954     0.00105
    32.93309     0.07884     0.00106
    32.93309     0.07871     0.00106
    26.58901     0.04534     0.00188
    26.58901     0.04486     0.00189
    26.58901     0.04493     0.00188
    26.58901     0.04423     0.00190
    26.58901     0.04411     0.00190
    20.57828     0.04652     0.00182
    20.57828     0.04607     0.00183
    20.57828     0.04607     0.00183
    20.57828     0.04542     0.00186
    20.57828     0.04543     0.00186
    15.29899     0.08459     0.00080
    15.29899     0.08387     0.00082
    15.29899     0.08437     0.00080
    15.29899     0.08349     0.00085
    15.29899     0.08358     0.00085
    11.77949     0.15334    -0.00078
    11.77949     0.15135    -0.00076
    11.77949     0.15554    -0.00083
    11.77949     0.15418    -0.00083
    11.77949     0.15395    -0.00080
    11.72847     0.21122    -0.00106
    11.72847     0.20509    -0.00118
    11.72847     0.22244    -0.00103
    11.72847     0.22355    -0.00133
    11.72847     0.22018    -0.00136
    45.06019     0.18816    -0.00094
    45.06019     0.18711    -0.00094
    45.06019     0.19373    -0.00102
    45.06019     0.19692    -0.00113
    45.06019     0.19626    -0.00112
    38.46927     0.13118     0.00006
    38.46927     0.13068     0.00006
    38.46927     0.13262     0.00001
    38.46927     0.13300    -0.00004
    38.46927     0.13246    -0.00006
    31.99144     0.07561     0.00124
    31.99144     0.07531     0.00125
    31.99144     0.07553     0.00123
    31.99144     0.07532     0.00123
    31.99144     0.07515     0.00122
    25.71231     0.04474     0.00193
    25.71231     0.04436     0.00193
    25.71231     0.04436     0.00193
    25.71231     0.04386     0.00196
    25.71231     0.04383     0.00195
    19.82164     0.04750     0.00177
    19.82164     0.04698     0.00179
    19.82164     0.04702     0.00178
    19.82164     0.04626     0.00182
    19.82164     0.04632     0.00183
    14.79105     0.08706     0.00068
    14.79105     0.08608     0.00071
    14.79105     0.08689     0.00068
    14.79105     0.08561     0.00074
    14.79105     0.08573     0.00075
    11.77949     0.15334    -0.00078
    11.77949     0.15135    -0.00076
    11.77949     0.15554    -0.00083
    11.77949     0.15418    -0.00083
    11.77949     0.15395    -0.00080
    50.97686     0.13951    -0.00031
    50.97686     0.13918    -0.00031
    50.97686     0.14071    -0.00035
    50.97686     0.14125    -0.00036
    50.97686     0.14115    -0.00036
    44.37662     0.16396    -0.00024
    44.37662     0.16491    -0.00023
    44.37662     0.16673    -0.00028
    44.37662     0.17095    -0.00032
    44.37662     0.17136    -0.00029
    37.86862     0.12118     0.00050
    37.86862     0.12157     0.00049
    37.86862     0.12189     0.00047
    37.86862     0.12325     0.00042
    37.86862     0.12280     0.00041
    31.51006     0.07331     0.00142
    31.51006     0.07322     0.00142
    31.51006     0.07321     0.00141
    31.51006     0.07343     0.00142
    31.51006     0.07346     0.00143
    25.41336     0.04456     0.00195
    25.41336     0.04420     0.00196
    25.41336     0.04417     0.00196
    25.41336     0.04375     0.00199
    25.41336     0.04382     0.00199
    19.82164     0.04750     0.00177
    19.82164     0.04698     0.00179
    19.82164     0.04702     0.00178
    19.82164     0.04626     0.00182
    19.82164     0.04632     0.00183
    15.29900     0.08459     0.00080
    15.29900     0.08387     0.00082
    15.29900     0.08437     0.00080
    15.29900     0.08349     0.00085
    15.29900     0.08358     0.00085
    57.10484     0.07929     0.00105
    57.10484     0.07899     0.00105
    57.10484     0.07899     0.00105
    57.10484     0.07864     0.00106
    57.10484     0.07851     0.00105
    50.52512     0.12614     0.00026
    50.52512     0.12668     0.00024
    50.52512     0.12668     0.00024
    50.52512     0.12810     0.00019
    50.52512     0.12771     0.00017
    44.03086     0.14870     0.00032
    44.03086     0.15018     0.00030
    44.03086     0.15019     0.00030
    44.03086     0.15415     0.00026
    44.03086     0.15392     0.00026
    37.66628     0.11894     0.00076
    37.66628     0.11968     0.00075
    37.66628     0.11968     0.00075
    37.66628     0.12233     0.00078
    37.66628     0.12323     0.00086
    31.51006     0.07331     0.00142
    31.51006     0.07322     0.00142
    31.51006     0.07321     0.00141
    31.51006     0.07343     0.00142
    31.51006     0.07346     0.00143
    25.71231     0.04474     0.00193
    25.71231     0.04436     0.00193
    25.71231     0.04436     0.00193
    25.71231     0.04386     0.00196
    25.71231     0.04383     0.00195
    20.57828     0.04652     0.00182
    20.57828     0.04607     0.00183
    20.57828     0.04607     0.00183
    20.57828     0.04542     0.00186
    20.57828     0.04543     0.00186
